# Acquired by emailing ahmet yildiz
# Data from 2012 DeWitt ... Yildiz paper
# motor-labeled dynein
# from: one color dynein head data/7-16_5uM_3A_spot1_steps ahmet.xlsx
# time (ms)	 position (nm)
1	24.102
2	23.393
3	20.582
4	21.552
5	21.307
6	18.857
7	17.809
8	18.521
9	20.978
10	18.558
11	21.744
12	19.779
13	27.545
14	22.29
15	20.8
16	19.437
17	20.487
18	18.216
19	17.79
20	17.709
21	12.475
22	17.31
23	17.614
24	15.358
25	20.216
26	21.873
27	15.246
28	14.887
29	15.742
30	18.916
31	18.07
32	17.055
33	17.054
34	18.975
35	14.905
36	15.564
37	20.651
38	19.952
39	15.788
40	14.835
41	21.917
42	17.008
43	17.387
44	17.382
45	14.136
46	17.104
47	17.9
48	14.628
49	14.07
50	15.397
51	14.493
52	18.827
53	14.156
54	16.949
55	14.528
56	20.977
57	21.479
58	19.21
59	15.288
60	15.304
61	18.824
62	15.65
63	17.819
64	33.385
65	31.449
66	22.834
67	23.836
68	21.471
69	23.85
70	26.693
71	25.279
72	27.191
73	28.726
74	27.879
75	28.33
76	29.948
77	23.967
78	22.147
79	20.625
80	19.367
81	22.643
82	18.728
83	29.06
84	25.904
85	18.695
86	18.93
87	27.259
88	19.51
89	20.344
90	23.688
91	23.001
92	25.79
93	25.698
94	22.496
95	23.664
96	21.951
97	26.948
98	23.225
99	27.373
100	25.704
101	24.354
102	22.708
103	27.983
104	22.872
105	23.635
106	27.733
107	20.632
108	27.474
109	26.63
110	23.714
111	25.615
112	24.856
113	27.196
114	24.902
115	26.625
116	24.652
117	23.471
118	23.443
119	26.915
120	25.519
121	26.81
122	18.915
123	29.422
124	20.71
125	23.368
126	25.348
127	20.733
128	21.271
129	23.865
130	22.041
131	23.503
132	22.789
133	18.923
134	25.829
135	26.759
136	26.454
137	21.128
138	30.567
139	22.194
140	23.051
141	24.286
142	22.158
143	20.585
144	28.188
145	18.459
146	22.858
147	27.411
148	18.401
149	28.191
150	24.885
151	21.139
152	24.801
153	24.32
154	19.327
155	24.606
156	24.857
157	26.298
158	24.025
159	25.828
160	24.012
161	29.078
162	24.079
163	24.371
164	27.135
165	27.356
166	24.001
167	24.603
168	26.988
169	25.62
170	21.5
171	24.097
172	27.059
173	24.434
174	24.391
175	20.672
176	23.944
177	21.943
178	23.637
179	22.26
180	25.089
181	20.581
182	18.803
183	19.579
184	20.461
185	30.5
186	26.265
187	34.602
188	30.743
189	29.348
190	35.887
191	35.508
192	34.511
193	38.853
194	33.834
195	34.601
196	36.572
197	31.112
198	37.307
199	30.303
200	38.775
201	32.835
202	36.268
203	41.332
204	37.382
205	42.469
206	38.031
207	35.305
208	36.243
209	39.614
210	37.753
211	42.655
212	42.485
213	42.067
214	40.069
215	38.54
216	36.644
217	36.578
218	41.032
219	43.452
220	39.758
221	34.993
222	37.681
223	42.337
224	34.854
225	35.553
226	39.336
227	44.871
228	38.454
229	37.043
230	39.249
231	44.624
232	40.221
233	39.383
234	36.843
235	36.824
236	37.395
237	33.99
238	40.428
239	41.047
240	39.389
241	40.286
242	39.864
243	41.595
244	36.373
245	43.196
246	37.677
247	39.222
248	41.039
249	29.456
250	36.47
251	32.758
252	34.047
253	35.663
254	38.228
255	35.495
256	30.303
257	31.753
258	31.016
259	34.618
260	31.46
261	32.586
262	34.04
263	33.212
264	16.624
265	10.954
266	17.872
267	17.613
268	20.034
269	20.045
270	23.389
271	17.311
272	18.421
273	20.133
274	20.039
275	17.878
276	29.569
277	29.618
278	28.315
279	28.68
280	28.286
281	33.769
282	28.091
283	28.891
284	31.253
285	33.199
286	30.975
287	30.314
288	29.458
289	30.669
290	30.273
291	34.087
292	27.079
293	29.068
294	33.727
295	31.898
296	31.095
297	32.834
298	31.03
299	29.162
300	34.296
301	29.23
302	29.225
303	29.716
304	35.064
305	29.828
306	30.1
307	31.62
308	34.784
309	29.298
310	26.565
311	30.816
312	34.723
313	35.764
314	34.879
315	32.455
316	30.872
317	32.099
318	32.313
319	33.764
320	32.438
321	33.678
322	32.362
323	35.008
324	33.038
325	31.079
326	31.798
327	31.146
328	33.845
329	35.169
330	32.637
331	32.835
332	36.539
333	29.982
334	29.524
335	33.132
336	32.56
337	33.659
338	32.8
339	36.902
340	32.673
341	36.055
342	27.16
343	32.492
344	35.25
345	28.758
346	31.995
347	34.552
348	33.77
349	32.928
350	33.561
351	32.297
352	30.946
353	34.986
354	29.361
355	30.338
356	30.819
357	29.523
358	32.115
359	31.741
360	35.799
361	22.364
362	26.853
363	24.796
364	29.54
365	26.273
366	28.848
367	22.61
368	27.862
369	27.612
370	25.726
371	27.704
372	27.491
373	27.903
374	29.004
375	23.202
376	23.66
377	19.655
378	25.06
379	22.664
380	21.54
381	22.564
382	23.959
383	21.869
384	21.548
385	22.286
386	26.309
387	24.845
388	26.925
389	22.024
390	21.209
391	24.99
392	25.313
393	23.219
394	26.382
395	25.586
396	20.713
397	23.092
398	22.26
399	23.024
400	22.214
401	23.782
402	23.3
403	25.375
404	27.484
405	24.651
406	24.532
407	21.782
408	23.418
409	24.983
410	26.238
411	31.821
412	36.465
413	38.588
414	35.981
415	37.824
416	33.589
417	33.034
418	27.981
419	29.218
420	30.035
421	30.858
422	30.98
423	31.644
424	34.087
425	32.89
426	28.725
427	30.789
428	31.886
429	33.153
430	32.998
431	31.75
432	27.345
433	30.159
434	28.748
435	29.577
436	31.986
437	32.014
438	23.919
439	29.883
440	30.075
441	32.932
442	31.206
443	31.943
444	33.673
445	36.427
446	35.003
447	35.776
448	31.176
449	28.748
450	34.572
451	29.402
452	29.395
453	26.895
454	36.367
455	31.125
456	29.061
457	28.862
458	24.372
459	24.796
460	27.898
461	25.554
462	25.112
463	26.573
464	27.962
465	28.646
466	24.561
467	24.417
468	20.679
469	23.846
470	20.943
471	18.927
472	26.512
473	21.583
474	20.002
475	23.64
476	29.458
477	25.432
478	22.699
479	26.115
480	23.963
481	27.464
482	27.532
483	28.087
484	22.438
485	25.388
486	26.329
487	24.933
488	26.879
489	20.076
490	26.531
491	24.764
492	20.405
493	22.747
494	24.221
495	22.517
496	23.945
497	23.045
498	16.997
499	30.87
500	25.25
501	33.159
502	31.265
503	35.899
504	26.046
505	31.129
506	27.34
507	28.736
508	29.838
509	31.266
510	26.514
511	28.97
512	30.275
513	33.199
514	31.022
515	30.802
516	32.488
517	34.717
518	38.225
519	37.313
520	34.247
521	38.167
522	36.399
523	39.148
524	41.997
525	37.464
526	38.109
527	40.51
528	40.075
529	37.526
530	37.686
531	37.228
532	38.551
533	42.836
534	37.774
535	42.549
536	39.059
537	38.039
538	37.997
539	40.242
540	39.106
541	41.523
542	47.109
543	45.489
544	45.295
545	47.617
546	48.044
547	43.795
548	45.821
549	45.049
550	37.798
551	45.93
552	46.236
553	39.56
554	41.2
555	39.204
556	43.747
557	47.189
558	48.911
559	43.858
560	47.213
561	45.784
562	47.702
563	43.75
564	45.329
565	46.873
566	43.694
567	43.215
568	40.19
569	46.424
570	41.221
571	48.281
572	44.107
573	44.557
574	39.326
575	46.237
576	43.463
577	42.316
578	40.239
579	38.356
580	56.597
581	48.611
582	55.305
583	54.693
584	57.587
585	64.101
586	54.068
587	53.455
588	50.538
589	52.703
590	80.656
591	80.939
592	106.21
593	96.141
594	101.62
595	98.285
596	100.31
597	99.35
598	99.267
599	100.76
600	94.14
601	94.855
602	94.991
603	92.776
604	99.975
605	99.38
606	94.946
607	103.61
608	101.96
609	98.978
610	102.84
611	94.859
612	105.08
613	96.283
614	98.069
615	99.884
616	98.103
617	94.337
618	95.942
619	100.03
620	100.4
621	106.33
622	93.484
623	102.2
624	100.69
625	100.4
626	96.246
627	98.374
628	97.086
629	97.402
630	101.11
631	99.022
632	100.87
633	103.28
634	102.36
635	99.078
636	102.23
637	104.84
638	96.428
639	99.862
640	97.743
641	102.1
642	102.26
643	100.88
644	97.348
645	95.326
646	100.89
647	103.72
648	102.55
649	109.1
650	107.5
651	110.31
652	107.73
653	113.9
654	110.46
655	110.24
656	112.4
657	115.44
658	112.62
659	113.14
660	111.26
661	110.25
662	103.21
663	100.01
664	103.61
665	102.27
666	101.36
667	102.64
668	101.87
669	97.67
670	100.43
671	102.8
672	102.25
673	103.86
674	97.193
675	100.35
676	100.43
677	101.06
678	105.93
679	101.91
680	102.98
681	100.44
682	101.47
683	98.304
684	105.04
685	102.1
686	101.27
687	102.3
688	97.466
689	100.09
690	104.13
691	100.9
692	100.13
693	100.46
694	101.94
695	108.17
696	98.813
697	101.65
698	101.36
699	104.07
700	107.65
701	101.45
702	103.88
703	101.25
704	105.81
705	98.539
706	96.837
707	108.9
708	106.76
709	105.92
710	106.89
711	99.364
712	99.65
713	100.47
714	106.85
715	96.154
716	104.03
717	106.48
718	104.2
719	95.357
720	99.142
721	97.738
722	101.03
723	107.63
724	101.19
725	102.45
726	102.25
727	99.426
728	102.13
729	105.06
730	103.99
731	104.16
732	101.02
733	106
734	100.33
735	101.62
736	105.43
737	103.74
738	105.86
739	102.2
740	104.11
741	103.05
742	96.876
743	89.714
744	103.1
745	107.23
746	106.52
747	106.23
748	106.09
749	101.33
750	104.66
751	104.68
752	103.96
753	104.2
754	107.68
755	103.66
756	105.77
757	100.07
758	101.32
759	104.12
760	106.68
761	103.32
762	103.9
763	105.74
764	107.72
765	106.32
766	102.75
767	101.42
768	100.93
769	100.61
770	111.86
771	102.35
772	104.11
773	104.46
774	101.74
775	102.65
776	101.47
777	105.17
778	105.42
779	103.99
780	112.1
781	110.68
782	107.45
783	109.35
784	115.14
785	109.5
786	110.67
787	109.54
788	104.65
789	106.87
790	108.95
791	109.92
792	103.68
793	100.5
794	106.53
795	101.16
796	110.01
797	105.64
798	105.84
799	107.37
800	99.962
801	105.9
802	102.08
803	100.95
804	108.76
805	108.56
806	103.42
807	104.06
808	105.31
809	104.15
810	101.35
811	99.359
812	104.64
813	103
814	96.227
815	100.54
816	105.87
817	104.49
818	101.87
819	98.96
820	101.91
821	103.07
822	97.598
823	99.038
824	101.43
825	100.79
826	100.65
827	106.54
828	105.71
829	101.69
830	99.874
831	101.72
832	98.743
833	102.02
834	105.68
835	101.48
836	107.35
837	104.26
838	100.29
839	100.57
840	98.833
841	103.48
842	105.83
843	101.1
844	103.05
845	105.14
846	106.52
847	103.63
848	106.04
849	108.3
850	103.04
851	103.89
852	103.28
853	100.92
854	101.43
855	105.23
856	109.26
857	105.42
858	108.34
859	106.66
860	107.22
861	110.87
862	112.45
863	110.69
864	108.73
865	110.66
866	112.19
867	108.84
868	103.93
869	109.25
870	103.15
871	105.56
872	109.01
873	106.96
874	102.26
875	105.73
876	104.88
877	113.1
878	105.9
879	107.07
880	107.68
881	105.2
882	104.9
883	102.46
884	105.43
885	106.38
886	105.75
887	103.68
888	104.8
889	107.13
890	108.5
891	101.71
892	107.26
893	109.72
894	106.85
895	109.1
896	108.89
897	105.92
898	108.21
899	109.37
900	105.85
901	100.35
902	100.87
903	106.44
904	111.16
905	105.18
906	104.66
907	106.61
908	108.3
909	110.23
910	110.24
911	107.63
912	105.62
913	106.34
914	112.28
915	111.44
916	102.56
917	107.32
918	107.5
919	108.7
920	107.96
921	111.53
922	112.86
923	109.7
924	109.31
925	112.63
926	111.52
927	111.83
928	112.18
929	111.95
930	113.13
931	109.01
932	109.21
933	107.53
934	107.59
935	113.75
936	118.32
937	111.5
938	109.31
939	110.25
940	109.1
941	111.3
942	105.29
943	109.82
944	108.64
945	107.07
946	109.7
947	105.24
948	108.07
949	108.04
950	114.1
951	108.99
952	107.92
953	112.12
954	108.06
955	104.56
956	106.71
957	104.39
958	103.39
959	107.07
960	104.85
961	103.99
962	110.85
963	108.46
964	103.42
965	104.81
966	109.94
967	104.29
968	107.37
969	105.48
970	103.92
971	102.41
972	104.11
973	104.46
974	106.7
975	107.13
976	106.73
977	105.62
978	104.93
979	107.02
980	106.01
981	105.78
982	106.56
983	108.78
984	111.59
985	99.808
986	107.22
987	105.82
988	107.11
989	109.49
990	102.74
991	110.11
992	106.79
993	103.16
994	108.95
995	105.71
996	109.07
997	105.2
998	108.08
999	105.4
1000	105.93
1001	100.45
1002	111.82
1003	105.38
1004	105.02
1005	103.94
1006	105.42
1007	110.48
1008	107.04
1009	109.28
1010	107.84
1011	107.25
1012	100.26
1013	106.09
1014	109.57
1015	105.57
1016	107.08
1017	102.55
1018	108.41
1019	105.51
1020	107.4
1021	108.69
1022	109.08
1023	99.688
1024	108.52
1025	110.02
1026	106.93
1027	105.7
1028	105.36
1029	108.56
1030	102.7
1031	109.4
1032	105.97
1033	106.67
1034	103.41
1035	109.41
1036	103.69
1037	107.6
1038	105.47
1039	100.48
1040	105.68
1041	107.07
1042	105.41
1043	104.75
1044	107.02
1045	102.69
1046	103.56
1047	106.29
1048	105.4
1049	103.86
1050	103.55
1051	102.66
1052	104.66
1053	103.04
1054	102.72
1055	107.45
1056	108.39
1057	96.77
1058	100.84
1059	101.85
1060	104.41
1061	103.96
1062	106.82
1063	102.31
1064	103.98
1065	106.71
1066	100.54
1067	102.16
1068	105.4
1069	101.07
1070	101.57
1071	106.87
1072	104.06
1073	101.55
1074	99.628
1075	101.77
1076	102.38
1077	101.86
1078	100.93
1079	105.93
1080	99.129
1081	106
1082	94.282
1083	104.17
1084	106.23
1085	104.88
1086	105.79
1087	106.46
1088	100.99
1089	112.95
1090	107.08
1091	112.5
1092	115.13
1093	118.31
1094	113.03
1095	105.04
1096	102.53
1097	109.5
1098	101.95
1099	109.78
1100	105.66
1101	108.41
1102	108.11
1103	105.6
1104	109.04
1105	107.62
1106	106.58
1107	107.65
1108	108.71
1109	105.5
1110	110.56
1111	107.23
1112	110.39
1113	105.48
1114	109.94
1115	103.94
1116	103.14
1117	105.21
1118	106.34
1119	104.57
1120	102.56
1121	103.64
1122	101.28
1123	104.7
1124	109.98
1125	105.7
1126	105.99
1127	105.54
1128	105.89
1129	111.16
1130	105.33
1131	110.36
1132	111.31
1133	108.24
1134	109.81
1135	107.21
1136	111.48
1137	111.3
1138	107.49
1139	108.88
1140	107.96
1141	107.63
1142	111.42
1143	106.34
1144	109.8
1145	112.7
1146	108.08
1147	108.33
1148	109.44
1149	105.87
1150	113.84
1151	108.89
1152	108.25
1153	109.08
1154	104.32
1155	106.49
1156	108.67
1157	103.1
1158	103.12
1159	108.38
1160	105.97
1161	109.66
1162	107.63
1163	112.35
1164	107.75
1165	110.68
1166	103.4
1167	108.56
1168	104.34
1169	108.01
1170	107.94
1171	110.29
1172	111.23
1173	117.86
1174	112.01
1175	117.03
1176	117.46
1177	114.67
1178	115.15
1179	116.05
1180	115.74
1181	118.99
1182	114.81
1183	113.85
1184	115.96
1185	113.58
1186	114.6
1187	111.38
1188	115.5
1189	110.92
1190	111.65
1191	113.61
1192	117.55
1193	117.9
1194	116.49
1195	122.42
1196	113.92
1197	116.76
1198	118.88
1199	124.32
1200	127.79
1201	124.05
1202	124.67
1203	126.93
1204	126.45
1205	124.89
1206	125.83
1207	120.34
1208	125.39
1209	123.45
1210	118.44
1211	114.63
1212	120.37
1213	121.31
1214	118.21
1215	119.1
1216	129.19
1217	117.77
1218	119.7
1219	115.58
1220	119.58
1221	119.53
1222	120.66
1223	118.97
1224	120.29
1225	115.11
1226	124.27
1227	123.71
1228	122.27
1229	125.53
1230	132.86
1231	130.93
1232	131.52
1233	128.8
1234	127.99
1235	128.4
1236	131.2
1237	130.42
1238	135.03
1239	136.12
1240	131.49
1241	130.14
1242	132.67
1243	136.41
1244	142.4
1245	139.81
1246	135.05
1247	138.39
1248	139.54
1249	136.93
1250	137.8
1251	139.78
1252	138.46
1253	138.23
1254	137.22
1255	141.03
1256	141.16
1257	144.51
1258	132.8
1259	135.63
1260	136.4
1261	137.81
1262	133.54
1263	139.73
1264	136.94
1265	139.61
1266	132.55
1267	143.31
1268	139.96
1269	142.06
1270	142.06
1271	140.52
1272	142.96
1273	142.63
1274	141.27
1275	142.98
1276	140.8
1277	142.63
1278	140.49
1279	144.28
1280	139.13
1281	139.72
1282	141.72
1283	142.89
1284	141.81
1285	144.9
1286	142.75
1287	139.67
1288	144.79
1289	142
1290	143.9
1291	145.26
1292	143.22
1293	147.23
1294	143.54
1295	138.23
1296	143.72
1297	145.48
1298	147.29
1299	137.23
1300	145.93
1301	140.93
1302	143.45
1303	139.99
1304	140.69
1305	145.91
1306	143.67
1307	143.86
1308	141.91
1309	145.9
1310	145.36
1311	143.22
1312	142.9
1313	136.48
1314	144.63
1315	145.95
1316	146.3
1317	142.91
1318	143.2
1319	140.59
1320	142.87
1321	139.84
1322	143.47
1323	139.69
1324	139.27
1325	142.67
1326	142.67
1327	143.29
1328	140.48
1329	142.77
1330	149.75
1331	144.26
1332	142.18
1333	140.8
1334	142.6
1335	139.03
1336	143.44
1337	143.1
1338	147.3
1339	145.79
1340	142.49
1341	136.98
1342	143.33
1343	146.77
1344	147.63
1345	152.22
1346	148.05
1347	153.4
1348	148.83
1349	147.69
1350	152.5
1351	144.19
1352	154.19
1353	151.75
1354	152.21
1355	146.94
1356	148.3
1357	147.51
1358	144.15
1359	144.66
1360	148.49
1361	152.45
1362	147.72
1363	152.28
1364	147
1365	146.07
1366	150.21
1367	143.84
1368	154.06
1369	158.7
1370	155.42
1371	158.6
1372	158.42
1373	154.95
1374	152.95
1375	150.82
1376	151.71
1377	150.74
1378	155.66
1379	154.48
1380	151.05
1381	156.87
1382	151.4
1383	153.18
1384	154.19
1385	151.76
1386	147.87
1387	154.97
1388	156.37
1389	153.67
1390	154.56
1391	152.13
1392	148.62
1393	146.3
1394	132.89
1395	127.96
1396	126.54
1397	129.56
1398	128.1
1399	130.37
1400	127.69
1401	127.52
1402	131.04
1403	131.46
1404	129.25
1405	129.71
1406	131.01
1407	127.95
1408	129.66
1409	126.54
1410	126.93
1411	127.25
1412	130.8
1413	126.34
1414	127.02
1415	129.51
1416	126.09
1417	120.98
1418	133.11
1419	148.44
1420	148.44
1421	144.87
1422	151.59
1423	148.08
1424	147.46
1425	146.72
1426	145.38
1427	145.02
1428	141.77
1429	140.69
1430	146.81
1431	145.09
1432	143.79
1433	147.28
1434	158.83
1435	156.79
1436	158.75
1437	153.48
1438	157.99
1439	164.41
1440	157.49
1441	153.62
1442	155.41
1443	157.34
1444	151.43
1445	154.87
1446	158.75
1447	153.59
1448	152.52
1449	156.94
1450	159.76
1451	161.13
1452	155.69
1453	158.95
1454	158.62
1455	153.63
1456	159.78
1457	159.36
1458	163.24
1459	161.88
1460	160.73
1461	161.39
1462	161.91
1463	159.88
1464	162.19
1465	159.92
1466	159.34
1467	157.33
1468	156.11
1469	161.69
1470	161.53
1471	164.35
1472	159.18
1473	161.58
1474	155.92
1475	156.95
1476	157.89
1477	155.28
1478	147.11
1479	152.86
1480	159.67
1481	154.33
1482	153.81
1483	155.19
1484	156.65
1485	154.61
1486	153.34
1487	154.51
1488	158.47
1489	153.33
1490	154.65
1491	159.93
1492	152.37
1493	153.81
1494	154.54
1495	159.67
1496	151.47
1497	149.98
1498	149.62
1499	155.19
1500	149.56
1501	152.5
1502	162.56
1503	157.25
1504	155.53
1505	156.23
1506	164.83
1507	157.03
1508	157.1
1509	162.38
1510	155.05
1511	146.3
1512	146.51
1513	146.68
1514	145.25
1515	142.64
1516	145.22
1517	144.36
1518	144.63
1519	142.95
1520	144.55
1521	143.25
1522	143.5
1523	150.12
1524	146.16
1525	143.78
1526	145.08
1527	143.86
1528	146.99
1529	144.87
1530	147.27
1531	141.74
1532	146.14
1533	140.45
1534	145.35
1535	143.84
1536	145.81
1537	148.7
1538	147.77
1539	149.9
1540	146.65
1541	146.76
1542	142.75
1543	150.47
1544	143.93
1545	147.09
1546	144.59
1547	145.4
1548	144.28
1549	142.55
1550	146.77
1551	147
1552	150.11
1553	139.78
1554	146.66
1555	143.82
1556	144.47
1557	144.31
1558	146.82
1559	145.64
1560	144.78
1561	145.66
1562	143.55
1563	144.92
1564	144.93
1565	141.42
1566	148.14
1567	142.47
1568	145.44
1569	142.82
1570	147.4
1571	140.63
1572	146.5
1573	151.16
1574	151.51
1575	153.92
1576	148.85
1577	149
1578	153.08
1579	155.1
1580	154.08
1581	148.35
1582	148.54
1583	148.94
1584	150.66
1585	156.73
1586	149.61
1587	148.67
1588	151.85
1589	151.72
1590	156.11
1591	147.69
1592	148.05
1593	150.47
1594	150.86
1595	153.33
1596	150.77
1597	153.29
1598	156.38
1599	155.72
1600	149.98
1601	151.4
1602	151.17
1603	152.24
1604	148.72
1605	154.35
1606	144.87
1607	152.3
1608	149
1609	149.32
1610	147.31
1611	152.06
1612	152.46
1613	145.43
1614	149.9
1615	155.5
1616	152.44
1617	153.09
1618	146.55
1619	153.96
1620	151.42
1621	153.38
1622	150.9
1623	154.47
1624	152.79
1625	151.82
1626	154.94
1627	153.65
1628	155.07
1629	150.74
1630	150.14
1631	153.34
1632	147.01
1633	152.41
1634	167.04
1635	173.08
1636	162.22
1637	164.8
1638	159.99
1639	168.6
1640	182.43
1641	181.16
1642	186.12
1643	181.54
1644	184.12
1645	185.77
1646	183.85
1647	192.05
1648	185.33
1649	188.85
1650	179.94
1651	181.28
1652	182.33
1653	183.26
1654	182.79
1655	181.7
1656	186.87
1657	188.28
1658	184.56
1659	184.72
1660	185.96
1661	186.32
1662	185.73
1663	180.58
1664	179.41
1665	183.57
1666	182.96
1667	176.37
1668	179.18
1669	179.43
1670	176.19
1671	175.87
1672	179.58
1673	180.35
1674	176.2
1675	183.13
1676	182.41
1677	179.42
1678	184.64
1679	182.83
1680	183.6
1681	186.11
1682	182.44
1683	180.37
1684	181.86
1685	182.58
1686	181.05
1687	181.57
1688	181.12
1689	179.99
1690	179.68
1691	179.56
1692	184.18
1693	177.21
1694	175
1695	178.4
1696	181.84
1697	180.92
1698	181.07
1699	181.81
1700	177.54
1701	174.56
1702	184.56
1703	180.42
1704	176.86
1705	174.96
1706	179.24
1707	176.81
1708	175.21
1709	179.36
1710	179.6
1711	185.39
1712	187.81
1713	180.98
1714	183.19
1715	182.83
1716	182.1
1717	182.31
1718	183.84
1719	186.87
1720	186.03
1721	182.59
1722	185.24
1723	183.73
1724	183.66
1725	179.81
1726	183.63
1727	183.36
1728	187.82
1729	186.18
1730	182.54
1731	191.67
1732	186
1733	185.8
1734	186.88
1735	188.38
1736	187.39
1737	186.98
1738	183.76
1739	184.87
1740	185.3
1741	186.64
1742	185.63
1743	181.74
1744	184.28
1745	184.53
1746	181.11
1747	185.19
1748	184.81
1749	184.46
1750	184.72
1751	186.55
1752	188.12
1753	186.87
1754	182.59
1755	189.91
1756	183.63
1757	185.89
1758	188.07
1759	185.24
1760	190.72
1761	191.71
1762	183.63
1763	193.16
1764	186.73
1765	190.31
1766	188.4
1767	190.44
1768	188.04
1769	188.76
1770	190.16
1771	188.17
1772	192.09
1773	192.32
1774	190.74
1775	180.1
1776	187.07
1777	188.32
1778	188.83
1779	191.22
1780	190.54
1781	189.6
1782	184.34
1783	187.67
1784	188.76
1785	189.57
1786	186.21
1787	188.8
1788	185.03
1789	188.56
1790	189.13
1791	188.9
1792	186.87
1793	188.36
1794	188.01
1795	189.61
1796	187.57
1797	190.99
1798	188.75
1799	183.41
1800	183.7
1801	185.41
1802	185.29
1803	182.64
1804	183.21
1805	185.6
1806	181.56
1807	186.64
1808	187.69
1809	186.07
1810	183.98
1811	186.89
1812	186.66
1813	185.5
1814	187.37
1815	189.55
1816	188.37
1817	189.56
1818	189.88
1819	189.86
1820	182.84
1821	191.49
1822	188.12
1823	186.29
1824	188.38
1825	190.78
1826	192.97
1827	186.45
1828	188.61
1829	190.58
1830	190.72
1831	191.4
1832	186.75
1833	189.49
1834	191.09
1835	189.44
1836	199.55
1837	203.93
1838	202.8
1839	201.99
1840	202.46
1841	202.47
1842	200.23
1843	199.75
1844	204.29
1845	202.45
1846	197.94
1847	199.53
1848	202.45
1849	204.55
1850	199.22
1851	197.53
1852	202.22
1853	202.93
1854	204.24
1855	198.91
1856	204.03
1857	201.54
1858	198.07
1859	198.26
1860	203.45
1861	200.66
1862	201.47
1863	198.71
1864	200.74
1865	203.99
1866	202.73
1867	200.98
1868	198.02
1869	198.09
1870	199.55
1871	199.08
1872	195.51
1873	196.55
1874	196.78
1875	199.69
1876	195.19
1877	196.64
1878	199.49
1879	194.29
1880	198.74
1881	197.88
1882	200.32
1883	198.59
1884	199.65
1885	201.36
1886	206.99
1887	210.81
1888	205.12
1889	209.51
1890	208.97
1891	208.58
1892	209.53
1893	204.15
1894	209.54
1895	209.01
1896	203.35
1897	202.74
1898	201.76
1899	206.36
1900	200.06
1901	204.86
1902	203.39
1903	207.93
1904	202.4
1905	205.56
1906	205.6
1907	204.62
1908	215.55
1909	210.67
1910	213.99
1911	219.92
1912	216.53
1913	219.65
1914	218.01
1915	214.56
1916	220.72
1917	222.55
1918	218.99
1919	216.61
1920	219.03
1921	215.07
1922	224.71
1923	233.77
1924	241.6
1925	232.51
1926	234.54
1927	233.28
1928	235.9
1929	236.29
1930	236.02
1931	232.33
1932	241.39
1933	239.15
1934	234.31
1935	237.22
1936	236.47
1937	241.2
1938	234.41
1939	240.62
1940	249.57
1941	251.38
1942	251.43
1943	247.47
1944	250.32
1945	251.68
1946	254.29
1947	248.54
1948	252.07
1949	250.86
1950	249.63
1951	250.02
1952	253.19
1953	251.37
1954	250.42
1955	258.9
1956	255.15
1957	252.99
1958	250.81
1959	248.43
1960	249.79
1961	250.52
1962	251.6
1963	251.52
1964	249.77
1965	244.85
1966	249.48
1967	244.23
1968	248.94
1969	253.7
1970	252.98
1971	247.72
1972	252.63
1973	247.64
1974	250.27
1975	244.42
1976	244.26
1977	243.72
1978	246.22
1979	239.01
1980	243.97
1981	239.74
1982	240.71
1983	243.68
1984	244.16
1985	246.68
1986	254.66
1987	250.09
1988	252.32
1989	246.3
1990	252.07
1991	249.5
1992	247.83
1993	246.08
1994	246.86
1995	248.51
1996	250.83
1997	249
1998	249.47
1999	251.7
2000	248.28
2001	249.73
2002	249.91
2003	247.07
2004	250.38
2005	247.42
2006	247.72
2007	246.71
2008	251.04
2009	247.69
2010	246.99
2011	247.87
2012	247.6
2013	250.23
2014	242.13
2015	247.27
2016	247.58
2017	249.73
2018	245.18
2019	248.44
2020	248.35
2021	247.73
2022	247.82
2023	252.74
2024	248.95
2025	254.32
2026	247.33
2027	243.86
2028	245.72
2029	247.47
2030	245.48
2031	243.31
2032	247.84
2033	249.34
2034	247.16
2035	246.79
2036	244.53
2037	245.78
2038	245.02
2039	246.67
2040	244.34
2041	248.81
2042	241.46
2043	250.82
2044	249.19
2045	248.58
2046	251.55
2047	252.23
2048	260.57
2049	252.85
2050	255.03
2051	256.39
2052	257.76
2053	259.1
2054	262.21
2055	262.06
2056	267.08
2057	263.33
2058	263.6
2059	258.69
2060	258.68
2061	260.15
2062	262.58
2063	262.89
2064	256.64
2065	258.25
2066	264.2
2067	264.37
2068	270.15
2069	261.04
2070	273.38
2071	275.52
2072	271.69
2073	280.01
2074	287.45
2075	288.52
2076	284.67
2077	286.92
2078	285.94
2079	290.72
2080	287.93
2081	286.04
2082	292.26
2083	291.03
2084	289.32
2085	288.2
2086	296.66
2087	296.82
2088	289.45
2089	288.53
2090	292.67
2091	294.28
2092	291.24
2093	289.22
2094	285.3
2095	290.46
2096	291.45
2097	292.63
2098	290.1
2099	294.33
2100	296.84
2101	290.93
2102	291.97
2103	291.99
2104	292.67
2105	295.69
2106	287.37
2107	288.78
2108	290.41
2109	291.33
2110	287.69
2111	285.05
2112	290.9
2113	294.55
2114	290.25
2115	292.89
2116	290.19
2117	284.6
2118	291.04
2119	287.02
2120	292.89
2121	287.93
2122	281.82
2123	290.48
2124	282.9
2125	290.98
2126	286.28
2127	288.53
2128	295.57
2129	288.94
2130	290.08
2131	287.28
2132	291.49
2133	291.4
2134	283.67
2135	291.83
2136	285.87
2137	289.02
2138	285.14
2139	291.19
2140	286.34
2141	286
2142	290.67
2143	286.41
2144	281.03
2145	292.63
2146	294.06
2147	288.54
2148	290.8
2149	290.18
2150	291.54
2151	291.04
2152	291.11
2153	296.26
2154	293.44
2155	294.14
2156	314.92
2157	307.87
2158	302.39
2159	309
2160	306.82
2161	307.37
2162	308.69
2163	306.55
2164	307.8
2165	308.8
2166	309.94
2167	308.31
2168	306.75
2169	306.12
2170	304.3
2171	305.98
2172	304.26
2173	302.72
2174	307.95
2175	306.51
2176	311.18
2177	304.94
2178	310.98
2179	309.18
2180	303.49
2181	311.01
2182	308.47
2183	309.04
2184	307.52
2185	307.44
2186	308.34
2187	307.04
2188	308.76
2189	301.98
2190	311.3
2191	308.94
2192	309.53
2193	303.53
2194	308.16
2195	306.03
2196	310.07
2197	303.14
2198	306.52
2199	310.94
2200	310.41
2201	310.86
2202	310.84
2203	307.18
2204	308.9
2205	309.99
2206	312.55
2207	314.8
2208	317.05
2209	305.52
2210	307.26
2211	306.63
2212	309.56
2213	306.2
2214	305.51
2215	305.25
2216	306.8
2217	315.63
2218	323.1
2219	323.91
2220	317.43
2221	319.61
2222	323.8
2223	320.3
2224	321.11
2225	324.33
2226	314.88
2227	314.24
2228	316.77
2229	312.59
2230	315.3
2231	311.02
2232	311.02
2233	308.63
2234	316.31
2235	319.47
2236	316.38
2237	315.95
2238	315.11
2239	313.39
2240	310.42
2241	320.19
2242	311.28
2243	309.48
2244	304.44
2245	307.66
2246	299.83
2247	304.41
2248	309.54
2249	312.91
2250	306.22
2251	307.89
2252	305.13
2253	306.51
2254	310.24
2255	301.93
2256	306.28
2257	308.22
2258	314.56
2259	307.3
2260	309.27
2261	310.42
2262	310.4
2263	310.67
2264	312.8
2265	306.23
2266	305.51
2267	307.1
2268	306.54
2269	308.2
2270	309.34
2271	306.65
2272	310.91
2273	314.99
2274	305.19
2275	303.92
2276	307.02
2277	311.18
2278	308.28
2279	306.42
2280	309.94
2281	309.71
2282	313.14
2283	313.38
2284	315.29
2285	317.33
2286	319.06
2287	316.43
2288	318.76
2289	316.8
2290	316.41
2291	316.52
2292	315.82
2293	315.53
2294	318.2
2295	314.39
2296	308.51
2297	286.04
2298	294.37
2299	284.45
2300	279.68
2301	279.17
2302	279.3
2303	279.16
2304	278.26
2305	278.68
2306	281.46
2307	282.03
2308	280.92
2309	280.23
2310	278.88
2311	282.67
2312	278.2
2313	279.34
2314	279.51
2315	281.95
2316	279.21
2317	276.77
2318	280.6
2319	278.3
2320	277.73
2321	277.36
2322	275.65
2323	274.7
2324	277.32
2325	278.55
2326	277.23
2327	284.16
2328	278.34
2329	284.12
2330	293.99
2331	298.59
2332	293.1
2333	293.41
2334	295.75
2335	295.88
2336	296.51
2337	293.95
2338	293.57
2339	301.22
2340	303.41
2341	301.61
2342	298.32
2343	299.72
2344	300.99
2345	299.65
2346	300.1
2347	291.47
2348	294.28
2349	297.82
2350	297.72
2351	293.48
2352	296.08
2353	299.25
2354	302.82
2355	301.57
2356	300.38
2357	305.88
2358	299.55
2359	301.82
2360	301.28
2361	302.66
2362	299.46
2363	298.58
2364	299.43
2365	302.31
2366	302.14
2367	302.06
2368	301.54
2369	298.86
2370	299.45
2371	309.01
2372	318.37
2373	316.38
2374	313.52
2375	319.59
2376	319.34
2377	316.64
2378	319.12
2379	315.22
2380	319.93
2381	313.64
2382	316.11
2383	310.45
2384	315.49
2385	317.55
2386	315.94
2387	311.85
2388	315.73
2389	313.38
2390	314.92
2391	316
2392	318.37
2393	319.48
2394	315.84
2395	316.7
2396	314.35
2397	315.93
2398	319.3
2399	318.23
2400	318.55
2401	319.11
2402	315.53
2403	318.03
2404	309.74
2405	315.1
2406	315.88
2407	320.76
2408	311.08
2409	316.19
2410	314.4
2411	316.41
2412	317.85
2413	312.97
2414	313.77
2415	311.14
2416	315.04
2417	312.77
2418	313.73
2419	317.81
2420	313.73
2421	320.95
2422	323.31
2423	314.25
2424	314.31
2425	316.83
2426	318.02
2427	323.56
2428	316.61
2429	313.62
2430	316.11
2431	312.86
2432	315.85
2433	321
2434	311.09
2435	314.64
2436	312.61
2437	315.92
2438	317.98
2439	319.42
2440	317.46
2441	315.85
2442	317.24
2443	318.55
2444	320.8
2445	318.55
2446	317.74
2447	316.46
2448	314.5
2449	321.8
2450	327.56
2451	334.05
2452	327.08
2453	326.95
2454	330.28
2455	333.54
2456	335.11
2457	337.99
2458	334.69
2459	335.42
2460	334.01
2461	328.49
2462	327.82
2463	331.1
2464	334.41
2465	340.46
2466	339.68
2467	339.22
2468	340.89
2469	344.74
2470	343.07
2471	343.88
2472	340.2
2473	344.12
2474	345.47
2475	341.43
2476	344.79
2477	342.64
2478	343.64
2479	343.93
2480	340.04
2481	341.37
2482	339.01
2483	342.4
2484	343.54
2485	346.83
2486	339.74
2487	341.63
2488	346.85
2489	341.87
2490	339.99
2491	344.03
2492	342.72
2493	338.25
2494	345.19
2495	343.06
2496	340.17
2497	344.95
2498	343.56
2499	342.75
2500	344.05
2501	345.98
2502	344.46
2503	341.43
2504	338.17
2505	342.79
2506	344.64
2507	338.12
2508	341.27
2509	340.74
2510	340.82
2511	342.17
2512	347.1
2513	345.4
2514	344.89
2515	344.03
2516	346.22
2517	345.47
2518	343.24
2519	339.72
2520	340.84
2521	346.41
2522	350.47
2523	358.76
2524	356.24
2525	355.01
2526	352.02
2527	354.59
2528	356.42
2529	353.97
2530	360.82
2531	355.97
2532	363.39
2533	356.12
2534	359.32
2535	358.89
2536	358.83
2537	362.27
2538	357.69
2539	358.16
2540	359.21
2541	359.79
2542	354.94
2543	358.32
2544	357.2
2545	354.07
2546	356.43
2547	358.79
2548	357.79
2549	360.95
2550	360.94
2551	367.98
2552	359.59
2553	363.79
2554	360.32
2555	358.57
2556	363.04
2557	357.12
2558	355.71
2559	357.08
2560	359.57
2561	360.03
2562	355.95
2563	359.28
2564	361.6
2565	363.46
2566	358.59
2567	356.41
2568	351.91
2569	353.49
2570	355.36
2571	360.22
2572	359.57
2573	356.38
2574	355.11
2575	357.2
2576	360.8
2577	352.41
2578	355.57
2579	358.07
2580	355.88
2581	357.31
2582	360.09
2583	357.9
2584	353.05
2585	355.5
2586	359.1
2587	355.83
2588	355.32
2589	355.68
2590	357.82
2591	351.4
2592	357.02
2593	353.39
2594	358.44
2595	355.54
2596	353.58
2597	355.11
2598	356.96
2599	360.24
2600	358.51
2601	358.22
2602	358.63
2603	351.71
2604	354.61
2605	357.85
2606	363.24
2607	361.96
2608	366.3
2609	365.61
2610	368.26
2611	363.33
2612	366.62
2613	366.26
2614	362.28
2615	363.1
2616	365.44
2617	364.19
2618	359.27
2619	366.27
2620	367.05
2621	363.79
2622	360.6
2623	362.17
2624	361.87
2625	363.43
2626	358.29
2627	365.01
2628	367.39
2629	364.37
2630	365.95
2631	363.29
2632	361.13
2633	368.25
2634	360.84
2635	366.72
2636	366.68
2637	366.94
2638	364.49
2639	364.77
2640	363.52
2641	365.2
2642	365.7
2643	365.64
2644	365.88
2645	363.65
2646	360.24
2647	363.86
2648	364.55
2649	363.99
2650	364.56
2651	366.09
2652	362.77
2653	367.19
2654	362.41
2655	368.41
2656	365.12
2657	366.63
2658	364.9
2659	358.62
2660	366.29
2661	363.91
2662	367.51
2663	362.14
2664	366.17
2665	368.86
2666	365.7
2667	363.04
2668	364.41
2669	367.68
2670	366.44
2671	365.11
2672	363.26
2673	366.52
2674	363.77
2675	360.51
2676	361.92
2677	360.97
2678	363.06
2679	363.53
2680	357.62
2681	364.56
2682	362.06
2683	360.93
2684	367.09
2685	359.51
2686	362.32
2687	358.8
2688	362.94
2689	360.59
2690	363.31
2691	363.74
2692	362.89
2693	362.86
2694	360.83
2695	366.83
2696	367.71
2697	361.91
2698	364.09
2699	367.99
2700	364.39
2701	365.09
2702	368.19
2703	362.26
2704	366.38
2705	367.82
2706	362.6
2707	366.11
2708	360.77
2709	362.67
2710	365.63
2711	365.51
2712	366.75
2713	366.39
2714	369.24
2715	365.19
2716	361.75
2717	365.4
2718	368
2719	365.69
2720	359.92
2721	361.09
2722	367.55
2723	361.76
2724	361.17
2725	362.56
2726	368.02
2727	367.84
2728	365.44
2729	361.12
2730	362.64
2731	366.56
2732	369.34
2733	362.17
2734	364.81
2735	363.51
2736	365.74
2737	361.49
2738	364.64
2739	362.71
2740	357.62
2741	361.96
2742	360.48
2743	364.18
2744	362.29
2745	358.33
2746	362.95
2747	362.47
2748	362.25
2749	361.31
2750	362.17
2751	360.17
2752	359.43
2753	358.67
2754	362.28
2755	361.65
2756	358.71
2757	361.96
2758	358.87
2759	369.08
2760	359.74
2761	357.06
2762	365.1
2763	361.1
2764	364.69
2765	359.96
2766	364.91
2767	362.86
2768	360.94
2769	364.53
2770	369.51
2771	369.35
2772	366.33
2773	367.05
2774	363.83
2775	359.89
2776	365.11
2777	361.34
2778	366.22
2779	366.82
2780	365.14
2781	362.48
2782	364.33
2783	367.07
2784	366.96
2785	370.15
2786	368.47
2787	368.58
2788	366.87
2789	367.93
2790	360.9
2791	360.75
2792	358.72
2793	363.84
2794	367.37
2795	363.25
2796	369.8
2797	364.9
2798	363.26
2799	362.69
2800	362.88
2801	363.33
2802	365.29
2803	364.54
2804	364.23
2805	363.26
2806	366.03
2807	370.68
2808	363.43
2809	377.57
2810	380.01
2811	376.19
2812	371.57
2813	370.53
2814	372.3
2815	371.71
2816	376.04
2817	373.48
2818	381.19
2819	382.82
2820	380.75
2821	378.43
2822	383.6
2823	379.33
2824	379.16
2825	377.64
2826	381.28
2827	380.73
2828	378.37
2829	380.42
2830	381.91
2831	377.12
2832	378.77
2833	380.58
2834	376.49
2835	379.66
2836	381.66
2837	384.01
2838	379.92
2839	381.82
2840	381.14
2841	381.65
2842	374.66
2843	375.23
2844	380.62
2845	378.32
2846	380.23
2847	384.71
2848	381.56
2849	385.66
2850	383.99
2851	381.64
2852	378.88
2853	382.02
2854	386.79
2855	385.15
2856	379.7
2857	377.65
2858	381.15
2859	381.27
2860	385.15
2861	382.68
2862	387.25
2863	381.72
2864	384.66
2865	383.32
2866	379.84
2867	387.88
2868	383.19
2869	383.49
2870	376.38
2871	383.85
2872	384.83
2873	381.15
2874	384.37
2875	384.05
2876	384.39
2877	380.89
2878	380.91
2879	381.93
2880	384.25
2881	403.03
2882	404.9
2883	402.84
2884	395.43
2885	392.64
2886	394.36
2887	394.87
2888	394.74
2889	396.03
2890	397.02
2891	398.07
2892	395.97
2893	393.24
2894	396
2895	396.19
2896	394.67
2897	398.7
2898	395.9
2899	395.79
2900	395.37
2901	395.21
2902	398.18
2903	395.85
2904	399.12
2905	394.34
2906	390.72
2907	393.35
2908	398.33
2909	396.9
2910	394.5
2911	394.2
2912	395.34
2913	398.42
2914	395.31
2915	397.88
2916	401.02
2917	403.24
2918	404.31
2919	409.41
2920	411.3
2921	410.56
2922	413.87
2923	410.59
2924	408.69
2925	415.42
2926	414.67
2927	410.68
2928	412.33
2929	410.7
2930	412.47
2931	413.84
2932	414.3
2933	412.58
2934	416.2
2935	414.01
2936	409.65
2937	410.04
2938	411.33
2939	410.2
2940	409.24
2941	407.18
2942	408.42
2943	406.33
2944	408.9
2945	411.83
2946	413.42
2947	409.32
2948	406.23
2949	406.01
2950	402.45
2951	402.42
2952	406.52
2953	402.17
2954	400.46
2955	406.09
2956	411.44
2957	411.43
2958	410.66
2959	410.96
2960	414.36
2961	412.17
2962	409.31
2963	409.46
2964	411.61
2965	410.48
2966	411.26
2967	408.39
2968	409.4
2969	412.55
2970	413.12
2971	415.41
2972	409.99
2973	408.68
2974	410.01
2975	410.2
2976	413.09
2977	418.43
2978	416.15
2979	420.46
2980	421.85
2981	419.44
2982	418.56
2983	419.54
2984	418.83
2985	417.5
2986	417.31
2987	419.26
2988	415.27
2989	416.83
2990	416.21
2991	419.56
2992	417.49
2993	415.11
2994	418.81
2995	415.82
2996	416.86
2997	415.88
2998	413.57
2999	415.07
3000	414
3001	417.57
3002	417.71
3003	417.61
3004	415.69
3005	421.97
3006	420.15
3007	418.86
3008	419.63
3009	422.73
3010	423.2
3011	423.53
3012	420.98
3013	421.72
3014	421.23
3015	418.31
3016	415.78
3017	422.79
3018	422.83
3019	420.67
3020	419.14
3021	421.15
3022	418.2
3023	425.99
3024	418.45
3025	419.04
3026	418.78
3027	418.39
3028	420.21
3029	420.53
3030	416.99
3031	417.57
3032	416.34
3033	420.17
3034	419.87
3035	421.94
3036	416.51
3037	420.54
3038	418.03
3039	418.85
3040	422.47
3041	421.96
3042	415.23
3043	418.85
3044	420.45
3045	420.72
3046	420.92
3047	418.75
3048	422.93
3049	423.48
3050	418.92
3051	417.92
3052	420.82
3053	420.66
3054	422.13
3055	422.77
3056	418.06
3057	417.79
3058	420.22
3059	421.1
3060	417.78
3061	415
3062	419.76
3063	418.42
3064	430.95
3065	427.78
3066	424.6
3067	433.13
3068	420.65
3069	421.5
3070	419.86
3071	419.11
3072	418.65
3073	422.05
3074	419.45
3075	418.24
3076	420.03
3077	418.35
3078	420.22
3079	422.23
3080	418.85
3081	418.7
3082	418.34
3083	413.76
3084	420.06
3085	419.38
3086	420.33
3087	420.86
3088	417.23
3089	414.83
3090	417.73
3091	417.17
3092	419.93
3093	421.35
3094	420.98
3095	417.79
3096	419.29
3097	417.85
3098	420.34
3099	419.19
3100	419.23
3101	415.49
3102	417.91
3103	417.74
3104	421.29
3105	415.27
3106	421.54
3107	418.67
3108	418.39
3109	419.29
3110	420.21
3111	418.49
3112	417.47
3113	420.55
3114	420.1
3115	415.93
3116	417.78
3117	419.09
3118	416.65
3119	418.1
3120	414.19
3121	419.56
3122	417
3123	419.32
3124	418.73
3125	421.41
3126	416.67
3127	420.04
3128	418.04
3129	420.08
3130	451.56
3131	454.7
3132	435.49
3133	420.77
3134	418.49
3135	417.89
3136	415.56
3137	417.86
3138	417.46
3139	417.23
3140	415.15
3141	415.85
3142	421.24
3143	417.84
3144	420.08
3145	419.2
3146	419.01
3147	418.82
3148	422
3149	414.97
3150	417.97
3151	420.59
3152	419.49
3153	414.73
3154	419.06
3155	417.08
3156	414.92
3157	416.12
3158	421.91
3159	419.85
3160	416.45
3161	420.95
3162	415.88
3163	415.22
3164	416.69
3165	417.46
3166	422.88
3167	416.69
3168	418.04
3169	419.63
3170	415.33
3171	417.67
3172	418.21
3173	418.09
3174	416.3
3175	416.75
3176	416.49
3177	416.14
3178	421.77
3179	415.41
3180	419.85
3181	418.13
3182	423.59
3183	416.52
3184	418.11
3185	417.77
3186	415.73
3187	417.16
3188	420.83
3189	412.49
3190	415.93
3191	418.47
3192	417.44
3193	415.28
3194	419.89
3195	417.41
3196	420.12
3197	416.83
3198	420.16
3199	423.04
3200	418.34
3201	416.33
3202	419.49
3203	417.57
3204	419
3205	417.36
3206	416.45
3207	418.78
3208	414.58
3209	419.63
3210	418.78
3211	420.14
3212	417.38
3213	418.39
3214	419.92
3215	413.46
3216	416.16
3217	414.66
3218	416.34
3219	416.23
3220	412.27
3221	415.42
3222	417.04
3223	412.4
3224	416.48
3225	420.01
3226	416.65
3227	415.78
3228	417.78
3229	421.82
3230	423.48
3231	418.4
3232	418.46
3233	418.83
3234	413.07
3235	414.02
3236	414.7
3237	419.45
3238	423.76
3239	418.4
3240	418.47
3241	419.42
3242	420.51
3243	420.29
3244	419
3245	417.86
3246	418.26
3247	419.29
3248	419.87
3249	418.63
3250	414.76
3251	419.94
3252	416.89
3253	417.83
3254	417.28
3255	414.59
3256	420.23
3257	415.83
3258	419
3259	419.05
3260	418.17
3261	416.73
3262	411.55
3263	418.47
3264	422.13
3265	420.29
3266	418.01
3267	423.76
3268	419.54
3269	421.74
3270	423.42
3271	425.52
3272	428.66
3273	424.5
3274	431.29
3275	423.09
3276	422.04
3277	420.67
3278	419.38
3279	421.81
3280	423.55
3281	422.84
3282	422.98
3283	425.59
3284	424.65
3285	423.73
3286	423.29
3287	421.39
3288	424.87
3289	423.1
3290	428.2
3291	422.91
3292	421.71
3293	430.95
3294	427.87
3295	426.89
3296	425.11
3297	424.71
3298	424.74
3299	424.52
3300	421.01
3301	423.5
3302	426.06
3303	430.89
3304	423.62
3305	428.14
3306	426.66
3307	427.27
3308	420.89
3309	422.44
3310	428.38
3311	421.6
3312	421.22
3313	421.26
3314	419.55
3315	424.97
3316	423.1
3317	422.61
3318	422.83
3319	427.89
3320	423.06
3321	425.13
3322	419.17
3323	422.58
3324	426.09
3325	420.99
3326	424.29
3327	425.29
3328	422.17
3329	421.01
3330	423.89
3331	425.22
3332	426.71
3333	422.65
3334	422.25
3335	424
3336	424.6
3337	424.27
3338	423.37
3339	424.26
3340	426.62
3341	426.24
3342	422.31
3343	422.09
3344	422.97
3345	435.2
3346	423.86
3347	427.1
3348	428.71
3349	429.4
3350	429.68
3351	430.88
3352	430.17
3353	429.38
3354	433.75
3355	428.1
3356	422.44
3357	431.39
3358	431.75
3359	432.47
3360	436.15
3361	433.82
3362	432.58
3363	436.87
3364	434.35
3365	429.67
3366	431.41
3367	432.17
3368	435.43
3369	430.37
3370	431.41
3371	430.96
3372	432.55
3373	430.21
3374	430.64
3375	431.06
3376	431.22
3377	437.53
3378	434.09
3379	432.63
3380	436.33
3381	434.74
3382	432.63
3383	435.59
3384	431.32
3385	429.34
3386	434.41
3387	434.82
3388	431.35
3389	432.68
3390	429.92
3391	429.76
3392	433.8
3393	429.17
3394	430.58
3395	432.22
3396	435.08
3397	434.57
3398	431.6
3399	432.13
3400	428.48
3401	435.35
3402	431.01
3403	429.89
3404	430.56
3405	429.6
3406	433.08
3407	431.49
3408	429.14
3409	427.97
3410	433.44
3411	436.6
3412	440.68
3413	437.63
3414	437.59
3415	437.57
3416	435.2
3417	437
3418	439.11
3419	441.79
3420	440.56
3421	439.11
3422	442.06
3423	435.79
3424	436.71
3425	437.56
3426	436.2
3427	436.13
3428	441.8
3429	439.79
3430	443.15
3431	437.12
3432	438.08
3433	435.3
3434	439.33
3435	437.27
3436	434.44
3437	444.28
3438	442.23
3439	439.08
3440	439.9
3441	442.99
3442	440.83
3443	440.76
3444	442.27
3445	434.69
3446	439.9
3447	438.6
3448	441.18
3449	443.09
3450	441.71
3451	449.37
3452	439.21
3453	441.04
3454	442.84
3455	439.33
3456	440.3
3457	441.25
3458	439.74
3459	442.3
3460	447.11
3461	438.81
3462	443.11
3463	441.33
3464	442.57
3465	439.3
3466	442.93
3467	443.02
3468	441.66
3469	439.62
3470	446.49
3471	441.57
3472	438.18
3473	443.43
3474	442.42
3475	442.71
3476	440.66
3477	436.69
3478	441.65
3479	437.96
3480	445.3
3481	439.81
3482	442.21
3483	442.18
3484	436.88
3485	414.13
3486	410.18
3487	408.66
3488	412.22
3489	408
3490	416.17
3491	425.23
3492	421.67
3493	421.66
3494	423.01
3495	425.03
3496	425.89
3497	424.89
3498	425.54
3499	422.94
3500	421.98
3501	421.66
3502	420.06
3503	418.8
3504	413.17
3505	408.66
3506	417.15
3507	414.92
3508	414.88
3509	417.21
3510	412.04
3511	413.84
3512	409.97
3513	414.96
3514	415.85
3515	413.96
3516	417.38
3517	414.16
3518	426.63
3519	434.01
3520	436.06
3521	432.33
3522	435.49
3523	436.53
3524	432.26
3525	438.03
3526	433.4
3527	434.11
3528	437.73
3529	436.41
3530	439.01
3531	438.95
3532	434.04
3533	437.48
3534	440.64
3535	438.5
3536	441.48
3537	436.79
3538	438.78
3539	438.21
3540	436.38
3541	436.39
3542	436.32
3543	439.36
3544	434.29
3545	435.42
3546	434.21
3547	436.27
3548	436.38
3549	435.23
3550	439.5
3551	437.98
3552	437.79
3553	434.31
3554	441.31
3555	444.57
3556	442.01
3557	436.87
3558	434.77
3559	440.57
3560	441.97
3561	434.13
3562	437.62
3563	439.08
3564	439.07
3565	439.86
3566	438.72
3567	446.39
3568	438.85
3569	439.49
3570	437.08
3571	439.2
3572	436.54
3573	441.47
3574	442.79
3575	432.88
3576	441.54
3577	442.46
3578	443.37
3579	439.47
3580	438.71
3581	440.44
3582	441.04
3583	438.26
3584	438.18
3585	438.05
3586	436.91
3587	440.9
3588	443.4
3589	444.61
3590	444.9
3591	445.04
3592	446.15
3593	444.67
3594	448.69
3595	447.85
3596	449.59
3597	447.62
3598	450.8
3599	448.42
3600	453.55
3601	456.99
3602	463.96
3603	469.58
3604	466.85
3605	469.91
3606	466.19
3607	466.33
3608	465.42
3609	465.06
3610	465.59
3611	467.65
3612	465.6
3613	470.73
3614	468.91
3615	468.61
3616	466.19
3617	466.58
3618	470.25
3619	471.3
3620	469.92
3621	465
3622	471.32
3623	468.98
3624	468.87
3625	466.62
3626	468.43
3627	470.94
3628	471.84
3629	471.87
3630	470.56
3631	463.72
3632	467.77
3633	472.97
3634	463.95
3635	469.54
3636	465.11
3637	468.01
3638	469.2
3639	470.23
3640	468.61
3641	470.13
3642	471.21
3643	466.67
3644	470.31
3645	473.26
3646	471.47
3647	468.5
3648	471.96
3649	471.97
3650	473.09
3651	467.91
3652	464.81
3653	468.92
3654	466.26
3655	471.57
3656	471.92
3657	471.03
3658	470.7
3659	468.23
3660	477.86
3661	475.32
3662	479.69
3663	476.64
3664	480.92
3665	476.61
3666	476.77
3667	473.44
3668	475.87
3669	478.7
3670	475.73
3671	472.06
3672	476.72
3673	480.57
3674	477.22
3675	479.95
3676	475.7
3677	482.49
3678	476.96
3679	477.93
3680	477.81
3681	479.3
3682	477.46
3683	485.86
3684	479.31
3685	482.17
3686	476.07
3687	474.24
3688	478.85
3689	474.15
3690	473.71
3691	471.65
3692	473.66
3693	476.02
3694	477.02
3695	478.16
3696	475.7
3697	478.44
3698	476.52
3699	479.62
3700	474.97
3701	481.06
3702	476.82
3703	472.31
3704	477.91
3705	474.36
3706	474.93
3707	472.21
3708	474.01
3709	476.8
3710	476.37
3711	475.54
3712	473.24
3713	477.29
3714	476.04
3715	478.41
3716	477.26
3717	475.28
3718	475.15
3719	476.4
3720	475.75
3721	478.62
3722	471.13
3723	476.09
3724	474.27
3725	472.63
3726	470.12
3727	475.84
3728	477.39
3729	475.13
3730	473.57
3731	478.22
3732	473.83
3733	476.51
3734	473.66
3735	477.29
3736	473.49
3737	474.41
3738	472.16
3739	472.78
3740	475.13
3741	473.9
3742	473.72
3743	474.47
3744	474.47
3745	473
3746	476.02
3747	474.58
3748	470.65
3749	469.16
3750	476.04
3751	473.42
3752	473.45
3753	473.5
3754	469.36
3755	471.48
3756	472.25
3757	474.4
3758	473.66
3759	471.02
3760	472.92
3761	471.72
3762	469.23
3763	472
3764	473.04
3765	473.07
3766	473.31
3767	471.05
3768	473.77
3769	472.3
3770	473.73
3771	468.47
3772	467.89
3773	472.37
3774	473.76
3775	470.18
3776	472.84
3777	473.91
3778	471
3779	464.9
3780	472.83
3781	470.66
3782	473.46
3783	473.72
3784	474.55
3785	470.49
3786	468.89
3787	471
3788	471.1
3789	473.35
3790	475.36
3791	469.42
3792	472.68
3793	470.52
3794	471.97
3795	472.84
3796	472.42
3797	474.53
3798	476.12
3799	473.64
3800	474.05
3801	474.35
3802	476.45
3803	473.24
3804	474.43
3805	470.04
3806	471.49
3807	471.69
3808	471.93
3809	474.37
3810	474.56
3811	472.7
3812	471.32
3813	471.48
3814	467.7
3815	476.36
3816	474.34
3817	473.21
3818	478.84
3819	476.15
3820	477.38
3821	477.64
3822	477.66
3823	477.69
3824	480.11
3825	479.61
3826	473.35
3827	473.48
3828	478.04
3829	484.45
3830	481.16
3831	481.8
3832	477.81
3833	480.19
3834	482.83
3835	482.18
3836	483.05
3837	482.39
3838	480.34
3839	481.65
3840	479.84
3841	478.97
3842	478.92
3843	479.47
3844	483.97
3845	481.7
3846	479.77
3847	479.36
3848	481.78
3849	480.55
3850	477.57
3851	481.95
3852	479.14
3853	477.91
3854	483.06
3855	478.68
3856	479.71
3857	480.77
3858	481.97
3859	479.11
3860	479.21
3861	479.72
3862	480.61
3863	481.39
3864	481
3865	481.54
3866	482.69
3867	478.93
3868	480.49
3869	480.49
3870	481.68
3871	476.89
3872	480.33
3873	478.15
3874	480.07
3875	482.83
3876	482.51
3877	474.99
3878	479.93
3879	481.37
3880	479.64
3881	478.47
3882	479.38
3883	479.9
3884	477.3
3885	482.1
3886	480.66
3887	481.79
3888	485.41
3889	478.77
3890	479.01
3891	477.63
3892	472.31
3893	482.96
3894	486.73
3895	480.78
3896	483.59
3897	487.11
3898	485.19
3899	488.83
3900	483.52
3901	488.45
3902	484.14
3903	485.08
3904	490.22
3905	491.82
3906	486.98
3907	493.12
3908	490.83
3909	488.1
3910	486.75
3911	484.3
3912	484.56
3913	487.91
3914	497.64
3915	506.43
3916	501.96
3917	504.85
3918	504.55
3919	505.38
3920	504.24
3921	503.87
3922	506.35
3923	503.33
3924	504.02
3925	515.11
3926	517.2
3927	511.85
3928	516.3
3929	514.72
3930	513.66
3931	517.04
3932	518.87
3933	514.32
3934	517.93
3935	519.15
3936	513.35
3937	515.2
3938	519.4
3939	524.25
3940	528.79
3941	523.44
3942	521.96
3943	517.06
3944	521.14
3945	512.75
3946	519.25
3947	514.45
3948	513.28
3949	517.47
3950	515.06
3951	519.05
3952	516.1
3953	521.95
3954	519.57
3955	517.95
3956	521.08
3957	518.41
3958	521.65
3959	518.87
3960	518.83
3961	521.35
3962	519.03
3963	522.2
3964	521.54
3965	521.79
3966	521.88
3967	524.01
3968	523.6
3969	519.54
3970	516.64
3971	519.82
3972	519.77
3973	517.98
3974	523.75
3975	523.98
3976	527.43
3977	524.72
3978	528.72
3979	531.68
3980	529.43
3981	527.08
3982	525.53
3983	526.87
3984	529.25
3985	526.23
3986	526.13
3987	525.71
3988	528.24
3989	523.52
3990	528.3
3991	526.38
3992	526.96
3993	522.4
3994	524.69
3995	525.15
3996	526.33
3997	526.13
3998	527.84
3999	527.87
4000	529.89
4001	527.43
4002	528.13
4003	529.43
4004	527.26
4005	529.42
4006	528.7
4007	529.34
4008	526.68
4009	530.86
4010	531.42
4011	525.83
4012	530.05
4013	528.16
4014	527.96
4015	528.9
4016	529.93
4017	533.44
4018	533.52
4019	531.66
4020	531.63
4021	532.63
4022	530.94
4023	530.04
4024	535.02
4025	532.15
4026	528.41
4027	531.99
4028	535.13
4029	537.6
4030	543.53
4031	552.23
4032	548.08
4033	553.44
4034	554.22
4035	550.24
4036	547.34
4037	529.42
4038	518.21
4039	546.68
4040	550.86
4041	551.26
4042	544.97
4043	535.14
4044	538.27
4045	530.7
4046	523.54
4047	512.95
4048	512.84
4049	514.46
4050	510.74
4051	510.26
4052	509.91
4053	510.06
4054	513.37
4055	511.32
4056	505.43
4057	502.46
4058	500.2
4059	500.05
4060	507.68
4061	506.34
4062	506.6
4063	506.4
4064	505.78
4065	510.68
4066	504.92
4067	503.99
4068	506.76
4069	509.32
4070	510.15
4071	505.87
4072	512.77
4073	513.97
4074	514.29
4075	513.74
4076	514.55
4077	514.72
4078	516.33
4079	513.9
4080	513.33
4081	518.69
4082	512.19
4083	513.46
4084	511.74
4085	514.91
4086	513.26
4087	512.77
4088	511.46
4089	515.12
4090	511.98
4091	504.13
4092	512.52
4093	521.62
4094	503.86
4095	504.58
4096	507.2
4097	507.17
4098	503.6
4099	504.96
4100	505.77
4101	507.97
4102	506.35
4103	504.52
4104	507.13
4105	508.11
4106	505.97
4107	505.97
4108	506.25
4109	504.52
4110	510.04
4111	508.81
4112	505.97
4113	505.39
4114	501.2
4115	517.09
4116	530.36
4117	537.75
4118	539.05
4119	538.78
4120	543.45
4121	538.36
4122	538.23
4123	540.35
4124	543.69
4125	550.72
4126	545.26
4127	544.34
4128	543.3
4129	540.65
4130	540.74
4131	540.08
4132	540.79
4133	538.09
4134	542.21
4135	535.96
4136	539.79
4137	536.58
4138	536.42
4139	540.41
4140	540.28
4141	540.35
4142	540.43
4143	545.98
4144	544.08
4145	539.1
4146	539.11
4147	531.75
4148	531.66
4149	531.24
4150	530.85
4151	529.66
4152	526.92
4153	529.1
4154	535.11
4155	526.33
4156	530.17
4157	526.94
4158	531.44
4159	525.91
4160	527.46
4161	535.36
4162	527.17
4163	529.68
4164	529.58
4165	533.71
4166	530.28
4167	527.58
4168	527.03
4169	528.35
4170	533.41
4171	529.36
4172	528.8
4173	528.81
4174	531.39
4175	527.37
4176	529.34
4177	529.13
4178	529.35
4179	531.37
4180	530.76
4181	530.06
4182	529.66
4183	528.71
4184	529.36
4185	529.16
4186	532.39
4187	530.58
4188	532.12
4189	533.28
4190	539.09
4191	534.88
4192	538.79
4193	536.94
4194	535.51
4195	536.51
4196	538.08
4197	535.21
4198	539.65
4199	538.63
4200	538.15
4201	534.1
4202	542.4
4203	536.97
4204	543.05
4205	536.93
4206	537.63
4207	538.01
4208	536.05
4209	537.61
4210	540.66
4211	538.21
4212	540.29
4213	536.81
4214	538.54
4215	543.28
4216	549.63
4217	555.65
4218	564.38
4219	564.01
4220	563.56
4221	566.75
4222	562.42
4223	562.35
4224	561.32
4225	562.49
4226	562.34
4227	565.38
4228	564.08
4229	566.46
4230	567.96
4231	568.27
4232	569.14
4233	563.92
4234	558.5
4235	559.7
4236	562.47
4237	559.62
4238	560.75
4239	562.82
4240	562.64
4241	561.03
4242	560.15
4243	556.75
4244	560.4
4245	561.49
4246	565.81
4247	566.78
4248	565.56
4249	566.14
4250	568.76
4251	564.16
4252	567.37
4253	567.19
4254	567.28
4255	565.58
4256	562.47
4257	565.71
4258	564.19
4259	569.01
4260	567.48
4261	563.67
4262	568.41
4263	564.22
4264	565.67
4265	565.49
4266	561.19
4267	565.51
4268	568.41
4269	565.21
4270	567.71
4271	568.27
4272	565.9
4273	567.18
4274	571.59
4275	570.29
4276	573.07
4277	569.52
4278	567.04
4279	566.4
4280	569.08
4281	568.73
4282	566.61
4283	562.08
4284	566.69
4285	572.06
4286	575.75
4287	572.66
4288	565.07
4289	564.8
4290	559.55
4291	569.92
4292	569.57
4293	569.36
4294	570.16
4295	570.07
4296	572.84
4297	567.01
4298	568.98
4299	565.41
4300	565.73
4301	564.19
4302	563.59
4303	567
4304	566.16
4305	563.85
4306	569.68
4307	568.24
4308	567.52
4309	567.89
4310	567.34
4311	561.06
4312	563.36
4313	567.71
4314	566.53
4315	563.88
4316	567.88
4317	565.24
4318	565.68
4319	563.16
4320	566.56
4321	567.97
4322	567.89
4323	566.28
4324	572.92
4325	568.01
4326	565.27
4327	565.99
4328	567.28
4329	565.06
4330	569.42
4331	569.22
4332	565.71
4333	569.72
4334	567.68
4335	568.22
4336	564.92
4337	567.47
4338	568.67
4339	566.26
4340	563.81
4341	565.43
4342	564.18
4343	566.45
4344	567.88
4345	566.51
4346	565.99
4347	562.66
4348	568.16
4349	563.62
4350	566.69
4351	568.42
4352	564.86
4353	567.49
4354	571.57
4355	568.99
4356	566.54
4357	564.06
4358	564.78
4359	570.85
4360	565.19
4361	568.19
4362	571.26
4363	570.58
4364	571.15
4365	569.11
4366	568.08
4367	568.79
4368	570.92
4369	570.16
4370	569.89
4371	570.89
4372	573.49
4373	568.49
4374	569.55
4375	572.79
4376	570.33
4377	573.56
4378	577.09
4379	571.67
4380	574.17
4381	571.96
4382	571.89
4383	568.92
4384	576.73
4385	573.65
4386	571.21
4387	571.28
4388	566
4389	573.94
4390	569.15
4391	568.56
4392	571.19
4393	567.61
4394	565.29
4395	571.31
4396	572.79
4397	570.51
4398	571.76
4399	573.46
4400	571.96
4401	571.94
4402	567.18
4403	571.5
4404	569.51
4405	569.06
4406	568.21
4407	569.72
4408	570.76
4409	571.32
4410	569.83
4411	574.67
4412	587.79
4413	586.64
4414	589.51
4415	587.14
4416	588.87
4417	588.78
4418	589.87
4419	588.27
4420	591.22
4421	586.86
4422	582.46
4423	588.74
4424	593.52
4425	586.71
4426	590.59
4427	584.97
4428	590.74
4429	586.66
4430	588.6
4431	584.69
4432	581.5
4433	591.48
4434	590.02
4435	588.12
4436	588.93
4437	591.55
4438	586.91
4439	590.84
4440	587.76
4441	587.59
4442	589.18
4443	590.29
4444	589.47
4445	584.86
4446	581.74
4447	586.25
4448	586.96
4449	593.32
4450	583.16
4451	592.16
4452	588.57
4453	593.82
4454	590.43
4455	592.64
4456	592.17
4457	591.51
4458	590.9
4459	589.85
4460	592.99
4461	588.65
4462	592.7
4463	593.12
4464	589.08
4465	587.53
4466	591.6
4467	586.76
4468	590.9
4469	593.69
4470	596.54
4471	589.89
4472	591.99
4473	589.88
4474	593.29
4475	589.43
4476	590.33
4477	593.83
4478	591.82
4479	593.03
4480	590.68
4481	588.33
4482	591.43
4483	590.43
4484	596.9
4485	593.65
4486	591.95
4487	591.61
4488	597.78
4489	596.32
4490	597.64
4491	591.83
4492	591.9
4493	597.12
4494	595.3
4495	595.08
4496	595.45
4497	593.77
4498	589.46
4499	592.13
4500	592.72
4501	594.77
4502	591.98
4503	591.53
4504	590.76
4505	589.91
4506	593.18
4507	589.77
4508	593.48
4509	587.76
4510	595.63
4511	592.25
4512	588.51
4513	592.59
4514	589.77
4515	592.28
4516	596.49
4517	589.4
4518	595.27
4519	593.56
4520	593.44
4521	592.7
4522	595.23
4523	596.35
4524	599.77
4525	591.65
4526	589.53
4527	595.8
4528	587.24
4529	593.44
4530	595.82
4531	588.12
4532	594.7
4533	595.58
4534	598.72
4535	595.24
4536	593.03
4537	596.2
4538	601.73
4539	599.05
4540	596.28
4541	601.76
4542	600.22
4543	597.56
4544	589.89
4545	588.12
4546	590.81
4547	586.1
4548	592.63
4549	590.56
4550	589.55
4551	591.16
4552	589.95
4553	589.11
4554	591.03
4555	590.79
4556	590.42
4557	588.27
4558	585.58
4559	589.18
4560	588.9
4561	589.81
4562	588.18
4563	590.2
4564	593.44
4565	583.92
4566	589.54
4567	590.2
4568	587.19
4569	587.98
4570	589.38
4571	588.49
4572	591.15
4573	587.39
4574	594.63
4575	592
4576	590.26
4577	589.08
4578	593.16
4579	588.44
4580	587.77
4581	588.48
4582	592.79
4583	587.84
4584	586.75
4585	591.32
4586	590.99
4587	592.12
4588	589.67
4589	588.51
4590	586.93
4591	588.19
4592	590.3
4593	591.31
4594	588.45
4595	585.92
4596	589.81
4597	587.87
4598	592.88
4599	585.35
4600	591.82
4601	592.09
4602	587.65
4603	592.48
4604	592.73
4605	594.7
4606	592.01
4607	585.34
4608	597.22
4609	591.64
4610	590.44
4611	589.32
4612	591.19
4613	591.75
4614	589.49
4615	588.55
4616	590.8
4617	589.67
4618	589.75
4619	593.98
4620	588.35
4621	591.81
4622	588.52
4623	592.44
4624	578.2
4625	581.91
4626	584.03
4627	576.11
4628	589.48
4629	595.48
4630	601.84
4631	591.53
4632	597.99
4633	598.73
4634	594.51
4635	597.39
4636	599.77
4637	597.22
4638	596.4
4639	595.05
4640	595.48
4641	600.49
4642	596.55
4643	603.71
4644	599.75
4645	602.66
4646	591.77
4647	599.86
4648	600.05
4649	598.52
4650	594.11
4651	597.55
4652	597.66
4653	595.55
4654	595.29
4655	597.45
4656	600.58
4657	596.12
4658	596.11
4659	595.41
4660	595.05
4661	596.98
4662	593.22
4663	592.15
4664	587.99
4665	601.02
4666	601.06
4667	602.66
4668	591.49
4669	590.64
4670	592
4671	594.25
4672	599.03
4673	600.4
4674	597.38
4675	605.01
4676	602.41
4677	596.6
4678	591.87
4679	599.45
4680	597.62
4681	595.14
4682	600.29
4683	596.2
4684	594.79
4685	593.09
4686	592.3
4687	593.61
4688	594.48
4689	590.71
4690	598
4691	593.6
4692	592.35
4693	598.81
4694	597.36
4695	597.66
4696	597.44
4697	597.52
4698	594.08
4699	599.1
4700	603.04
4701	586.32
4702	590.11
4703	593.9
4704	597.6
4705	599.66
4706	592.99
4707	595.92
4708	597.1
4709	594.2
4710	590.03
4711	597.28
4712	579.93
4713	579.5
4714	592.21
4715	605.8
4716	600.01
4717	596.34
4718	601.05
4719	594.64
4720	596.71
4721	599.19
4722	600.55
4723	599.53
4724	604.19
4725	600.7
4726	602.06
4727	601.4
4728	600.84
4729	601.72
4730	602.01
4731	599.96
4732	601.92
4733	608.22
4734	604.8
4735	604.64
4736	597.95
4737	598.34
4738	598.36
4739	598.75
4740	600.77
4741	599.43
4742	601.71
4743	598.54
4744	598.48
4745	599.44
4746	599.41
4747	608.15
4748	606.7
4749	609
4750	602.19
4751	597.91
4752	600.71
4753	601.71
4754	599.71
4755	600.87
4756	597.57
4757	597.75
4758	600.6
4759	598.54
4760	594.8
4761	598.49
4762	601.36
4763	596.39
4764	603.42
4765	601.34
4766	602.24
4767	607.37
4768	607.33
4769	604.17
4770	611.44
4771	615.24
4772	607.86
4773	607.23
4774	608.29
4775	609.11
4776	605.25
4777	618.1
4778	609.87
4779	600.01
4780	598.76
4781	598.97
4782	601.75
4783	599.79
4784	597.23
4785	602.9
4786	599.73
4787	598.81
4788	597.42
4789	603.9
4790	602.19
4791	604.21
4792	603.08
4793	608.06
4794	608.06
4795	603.54
4796	603.76
4797	603.56
4798	603.6
4799	605.56
4800	603.65
4801	601.58
4802	607.66
4803	605.63
4804	604.87
4805	602.44
4806	607.17
4807	606.61
4808	614.95
4809	616.54
4810	617.29
4811	619.39
4812	624.75
4813	617.75
4814	614.74
4815	614.92
4816	616.02
4817	617.14
4818	618.73
4819	618.03
4820	615.21
4821	622.25
4822	617.94
4823	621.5
4824	617.48
4825	620.71
4826	618.77
4827	613.59
4828	619.43
4829	620.49
4830	616.8
4831	618.29
4832	616.13
4833	620.66
4834	619.47
4835	615.54
4836	616.97
4837	613.3
4838	618.42
4839	615.66
4840	615.02
4841	615.4
4842	618.78
4843	617.82
4844	616.84
4845	619.77
4846	621
4847	618.37
4848	619.16
4849	617.92
4850	625.74
4851	634.89
4852	637.47
4853	627.71
4854	628.75
4855	626.78
4856	628.4
4857	630.14
4858	633.11
4859	627.74
4860	626.54
4861	624.79
4862	621.14
4863	621.04
4864	618.09
4865	615.23
4866	617.15
4867	616.41
4868	612.78
4869	615.28
4870	616.06
4871	610.31
4872	616.03
4873	614.64
4874	618.99
4875	613.18
4876	614.25
4877	614.28
4878	615.68
4879	615.15
4880	615.68
4881	614.81
4882	610.17
4883	616.51
4884	615.37
4885	618.07
4886	617.94
4887	619.49
4888	615.21
4889	620.82
4890	612.98
4891	613.34
4892	620.93
4893	620.67
4894	626.82
4895	621.17
4896	615.42
4897	625.42
4898	628.15
4899	628.46
4900	623.69
4901	621.83
4902	621.85
4903	620.38
4904	617.62
4905	624.41
4906	623.58
4907	625.88
4908	622.81
4909	622.24
4910	625.08
4911	621.65
4912	626.54
4913	627.58
4914	631.22
4915	627.87
4916	625.99
4917	628.94
4918	629.04
4919	630.52
4920	622.35
4921	620.18
4922	616.59
4923	619.44
4924	619.14
4925	625.28
4926	626.59
4927	622.21
4928	626.96
4929	627.59
4930	628.6
4931	628.23
4932	627.58
4933	623.44
4934	629.54
4935	629.66
4936	635.24
4937	630
4938	627.12
4939	624.54
4940	628.45
4941	624.86
4942	624.34
4943	629.69
4944	624.91
4945	625.61
4946	624.87
4947	624.94
4948	627.01
4949	630.35
4950	627.57
4951	627.22
4952	626.68
4953	626.46
4954	625.9
4955	619.18
4956	618.02
4957	619.14
4958	621.67
4959	622.19
4960	617.85
4961	619.58
4962	620.59
4963	620.35
4964	620.43
4965	615.76
4966	608.69
4967	609.79
4968	610.34
4969	613.01
4970	610.22
4971	611.32
4972	612.21
4973	611.16
4974	613.08
4975	612.08
4976	610.63
4977	611.23
4978	609.93
4979	608.05
4980	606.32
4981	607.77
4982	611.06
4983	606.46
4984	606.38
4985	610.99
4986	610.27
4987	611.02
4988	606.89
4989	610.06
4990	612.51
4991	607.79
4992	615.54
4993	615.76
4994	618.73
4995	617.46
4996	613.38
4997	612.13
4998	617.27
4999	612.83
5000	611.13
5001	610.9
5002	615.15
5003	617.34
5004	616.75
5005	614.16
5006	615.22
5007	610.35
5008	611.43
5009	613.73
5010	612.18
5011	612.55
5012	617.69
5013	616.91
5014	622.67
5015	616.36
5016	612.01
5017	613.1
5018	613.18
5019	618.53
5020	622.53
5021	619.94
5022	617.27
5023	615.62
5024	618.4
5025	617.75
5026	615.92
5027	617.66
5028	614.33
5029	618.62
5030	618.88
5031	612.07
5032	616.65
5033	617.14
5034	612.81
5035	614.18
5036	614.66
5037	613.68
5038	615.22
5039	613.43
5040	610.78
5041	616.14
5042	608.4
5043	613.52
5044	627.87
5045	628
5046	626.58
5047	624.34
5048	622.01
5049	628.1
